# WAVELENGTH   THROUGHPUT    
  1938.6383,    0.0           
  1939.6383,    0.0           
  1940.6383,    1.4168083E-6  
  1950.6399,    1.426847E-6   
  1960.6414,    1.2440847E-6  
  1970.6431,    1.213848E-6   
  1980.6447,    1.0813491E-6  
  1990.6464,    1.1047052E-6  
  2000.6482,    9.753965E-7   
  2010.6499,    8.735874E-7   
  2020.6517,    8.63567E-7    
  2030.6534,    7.7629716E-7  
  2040.6553,    7.098086E-7   
  2050.657,     6.4882965E-7  
  2060.659,     6.0659005E-7  
  2070.661,     5.3303114E-7  
  2080.6628,    4.882017E-7   
  2090.6648,    4.4013063E-7  
  2100.6667,    3.9989771E-7  
  2110.6687,    3.5908266E-7  
  2120.6707,    3.323488E-7   
  2130.6726,    2.9792517E-7  
  2140.6746,    2.905188E-7   
  2150.6765,    2.5701425E-7  
  2160.6787,    2.3034701E-7  
  2170.6807,    2.1636164E-7  
  2180.6829,    2.0441425E-7  
  2190.6848,    2.0958588E-7  
  2200.687,     1.7141716E-7  
  2210.689,     1.60631E-7    
  2220.6912,    1.6809688E-7  
  2230.693,     1.6909064E-7  
  2240.6953,    1.6156525E-7  
  2250.6975,    1.4936967E-7  
  2260.6997,    1.411764E-7   
  2270.702,     1.6775184E-7  
  2280.704,     1.6670056E-7  
  2290.7063,    1.6607302E-7  
  2300.7085,    1.496562E-7   
  2310.7104,    1.8347352E-7  
  2320.713,     1.9599901E-7  
  2330.715,     1.9218234E-7  
  2340.7173,    2.0820468E-7  
  2350.7195,    2.2167754E-7  
  2360.7217,    2.3482754E-7  
  2370.7239,    2.4357973E-7  
  2380.726,     2.586941E-7   
  2390.7285,    2.6515002E-7  
  2400.7307,    2.9679214E-7  
  2410.733,     2.960819E-7   
  2420.735,     3.4203427E-7  
  2430.7375,    3.3883302E-7  
  2440.7397,    3.5935304E-7  
  2450.7422,    3.891378E-7   
  2460.7444,    4.0567568E-7  
  2470.7466,    4.218756E-7   
  2480.749,     4.2307417E-7  
  2490.7512,    4.8273245E-7  
  2500.7537,    4.9524886E-7  
  2510.756,     5.118291E-7   
  2520.7583,    5.516131E-7   
  2530.7605,    5.590053E-7   
  2540.763,     6.031679E-7   
  2550.7654,    6.514246E-7   
  2560.7676,    6.481224E-7   
  2570.77,      6.9489505E-7  
  2580.7725,    7.1242266E-7  
  2590.775,     7.6364154E-7  
  2600.777,     7.6916825E-7  
  2610.7795,    8.226258E-7   
  2620.782,     8.744258E-7   
  2630.7842,    8.919161E-7   
  2640.7866,    9.403725E-7   
  2650.789,     9.845603E-7   
  2660.7915,    1.0534329E-6  
  2670.7937,    1.1147841E-6  
  2680.7961,    1.1586915E-6  
  2690.7986,    1.2101757E-6  
  2700.801,     1.2572206E-6  
  2710.8035,    1.3242217E-6  
  2720.806,     1.3860974E-6  
  2730.8083,    1.4484677E-6  
  2740.8108,    1.5687185E-6  
  2750.813,     1.6189113E-6  
  2760.8157,    1.6611539E-6  
  2770.818,     1.7473644E-6  
  2780.8203,    1.8184919E-6  
  2790.823,     1.9020792E-6  
  2800.8252,    1.931277E-6   
  2810.828,     2.0401574E-6  
  2820.83,      2.0504683E-6  
  2830.8325,    2.1625974E-6  
  2840.8352,    2.1638282E-6  
  2850.8376,    2.1783462E-6  
  2860.84,      2.2453473E-6  
  2870.8425,    2.2552547E-6  
  2880.845,     2.2808001E-6  
  2890.8474,    2.2286704E-6  
  2900.8499,    2.2304357E-6  
  2910.8523,    2.1987364E-6  
  2920.8547,    2.1571695E-6  
  2930.8574,    2.075963E-6   
  2940.8599,    2.0762154E-6  
  2950.8623,    2.0228142E-6  
  2960.8647,    1.95997E-6    
  2970.8672,    1.8536218E-6  
  2980.8696,    1.7872867E-6  
  2990.8723,    1.7380522E-6  
  3000.8748,    1.6470092E-6  
  3010.8772,    1.5411049E-6  
  3020.8796,    1.4836178E-6  
  3030.882,     1.4371378E-6  
  3040.8848,    1.3008051E-6  
  3050.8872,    1.2222118E-6  
  3060.8896,    1.2010653E-6  
  3070.892,     1.0968458E-6  
  3080.8948,    1.0245884E-6  
  3090.8972,    9.3476507E-7  
  3100.8997,    8.730779E-7   
  3110.902,     8.343997E-7   
  3120.9048,    7.846589E-7   
  3130.9072,    7.3864396E-7  
  3140.91,      6.545037E-7   
  3150.9124,    6.27444E-7    
  3160.9148,    5.7158326E-7  
  3170.9172,    5.402175E-7   
  3180.92,      4.9827656E-7  
  3190.9224,    4.7330124E-7  
  3200.9248,    4.2795722E-7  
  3210.9275,    3.9966667E-7  
  3220.93,      3.7395688E-7  
  3230.9326,    3.2796314E-7  
  3240.935,     3.3053584E-7  
  3250.9375,    3.26475E-7    
  3260.9402,    3.0797682E-7  
  3270.9426,    2.7403138E-7  
  3280.9453,    2.838752E-7   
  3290.9478,    2.7200048E-7  
  3300.9502,    2.530604E-7   
  3310.953,     2.2203065E-7  
  3320.9553,    2.236005E-7   
  3330.958,     2.2975277E-7  
  3340.9604,    2.3314772E-7  
  3350.963,     2.0493786E-7  
  3360.9656,    2.0559567E-7  
  3370.968,     2.1562614E-7  
  3380.9707,    2.3401638E-7  
  3390.9731,    1.9813587E-7  
  3400.9758,    1.992164E-7   
  3410.9783,    2.4158516E-7  
  3420.981,     2.1131109E-7  
  3430.9834,    2.2555676E-7  
  3440.986,     2.555887E-7   
  3450.9885,    2.3488606E-7  
  3460.9912,    2.347539E-7   
  3470.9937,    2.3313056E-7  
  3480.9963,    2.2743029E-7  
  3490.9988,    2.3511105E-7  
  3501.0015,    2.3428778E-7  
  3511.004,     2.4433137E-7  
  3521.0066,    2.270923E-7   
  3531.009,     2.1838751E-7  
  3541.0117,    3.022402E-7   
  3551.0144,    2.327028E-7   
  3561.0168,    2.904361E-7   
  3571.0193,    2.5233297E-7  
  3581.022,     2.8292786E-7  
  3591.0247,    2.8578708E-7  
  3601.027,     3.079728E-7   
  3611.0298,    3.1838766E-7  
  3621.0322,    3.0680044E-7  
  3631.035,     3.5650794E-7  
  3641.0376,    3.233575E-7   
  3651.04,      3.3797042E-7  
  3661.0425,    3.6614898E-7  
  3671.0452,    3.690637E-7   
  3681.0479,    3.7082222E-7  
  3691.0503,    4.1004623E-7  
  3701.053,     4.4296763E-7  
  3711.0557,    5.2467846E-7  
  3721.058,     5.703211E-7   
  3731.0608,    6.7759345E-7  
  3741.0632,    7.708501E-7   
  3751.066,     9.1196495E-7  
  3761.0686,    9.943891E-7   
  3771.071,     1.1631306E-6  
  3781.0737,    1.3042454E-6  
  3791.0764,    1.6296359E-6  
  3801.0789,    2.1773476E-6  
  3811.0815,    3.0740075E-6  
  3851.0918,    1.0089E-5     
  3861.0945,    1.81602E-5    
  3871.0972,    5.0445E-5     
  3881.0996,    8.9792105E-5  
  3891.1023,    1.9471771E-4  
  3901.105,     3.7430192E-4  
  3911.1074,    8.303247E-4   
  3921.11,      0.0018392248  
  3931.1128,    0.0041395165  
  3941.1155,    0.00930004    
  3951.118,     0.02035254    
  3961.1206,    0.042574573   
  3971.1233,    0.08320499    
  3981.1257,    0.1474689     
  3991.1284,    0.2286672     
  4001.131,     0.31621048    
  4011.1335,    0.40198714    
  4021.1362,    0.47459164    
  4031.139,     0.5316217     
  4041.1416,    0.5746261     
  4051.144,     0.6063701     
  4061.1467,    0.6291319     
  4071.1494,    0.646489      
  4081.1519,    0.66009       
  4091.1545,    0.67038786    
  4101.157,     0.6798897     
  4111.1597,    0.6867542     
  4121.1626,    0.6929105     
  4131.165,     0.6998538     
  4141.1675,    0.705772      
  4151.1704,    0.7134618     
  4161.173,     0.72143716    
  4171.1753,    0.73046887    
  4181.178,     0.7407142     
  4191.1807,    0.7501606     
  4201.1836,    0.7594213     
  4211.186,     0.7676781     
  4221.1885,    0.7744044     
  4231.1914,    0.779341      
  4241.194,     0.78148186    
  4251.1963,    0.78197926    
  4261.199,     0.7808453     
  4271.2017,    0.77937835    
  4281.2046,    0.77756834    
  4291.207,     0.77802235    
  4301.2095,    0.78013194    
  4311.2124,    0.7845893     
  4321.215,     0.79119956    
  4331.218,     0.7989278     
  4341.22,      0.80766785    
  4351.2227,    0.8154697     
  4361.2256,    0.8215342     
  4371.228,     0.825928      
  4381.2305,    0.82749987    
  4391.2334,    0.8278106     
  4401.236,     0.82649904    
  4411.239,     0.8249644     
  4421.241,     0.82490087    
  4431.244,     0.8261509     
  4441.2466,    0.82935417    
  4451.249,     0.8346408     
  4461.252,     0.84178686    
  4471.2544,    0.8496553     
  4481.2573,    0.8582219     
  4491.26,      0.8662456     
  4501.262,     0.8728398     
  4511.265,     0.87841904    
  4521.2676,    0.88144773    
  4531.2705,    0.8838923     
  4541.273,     0.8855519     
  4551.2754,    0.8864438     
  4561.2783,    0.8879904     
  4571.281,     0.8886725     
  4581.2837,    0.889297      
  4591.286,     0.8898115     
  4601.2886,    0.8892768     
  4611.2915,    0.8885807     
  4621.294,     0.88571435    
  4631.297,     0.88250905    
  4641.2993,    0.8783968     
  4651.302,     0.87428653    
  4661.3047,    0.87018335    
  4671.307,     0.8670134     
  4681.31,      0.8654415     
  4691.3125,    0.8648039     
  4701.3154,    0.86672485    
  4711.318,     0.8701934     
  4721.3203,    0.8746145     
  4731.323,     0.8808656     
  4741.3257,    0.88635707    
  4751.3286,    0.89215314    
  4761.331,     0.89775354    
  4771.334,     0.90192133    
  4781.3364,    0.90581673    
  4791.339,     0.90741986    
  4801.342,     0.9096404     
  4811.344,     0.91082186    
  4821.347,     0.91158557    
  4831.3496,    0.91362154    
  4841.3525,    0.91482615    
  4851.355,     0.9171083     
  4861.3574,    0.9195135     
  4871.3604,    0.92162615    
  4881.363,     0.922969      
  4891.3657,    0.9233665     
  4901.368,     0.92271477    
  4911.371,     0.9203267     
  4921.3735,    0.91693574    
  4931.376,     0.9120789     
  4941.379,     0.9065532     
  4951.3813,    0.90041703    
  4961.3843,    0.8937664     
  4971.3867,    0.8884314     
  4981.3896,    0.88311845    
  4991.392,     0.87879735    
  5001.395,     0.8764991     
  5011.3975,    0.87405044    
  5021.4,       0.8738557     
  5031.403,     0.87468815    
  5041.4053,    0.8749595     
  5051.408,     0.8764476     
  5061.4106,    0.87864697    
  5071.4136,    0.8799183     
  5081.416,     0.8818361     
  5091.419,     0.882955      
  5101.4214,    0.88389736    
  5111.4243,    0.88470644    
  5121.427,     0.8851635     
  5131.429,     0.88512516    
  5141.432,     0.88555294    
  5151.4346,    0.8849496     
  5161.4375,    0.8835947     
  5171.44,      0.88314366    
  5181.443,     0.88300043    
  5191.4453,    0.8813952     
  5201.448,     0.8810906     
  5211.4507,    0.8819168     
  5221.4536,    0.8821217     
  5231.456,     0.882723      
  5241.4585,    0.8851262     
  5251.4614,    0.8869361     
  5261.464,     0.88762623    
  5271.467,     0.8891961     
  5281.469,     0.8884939     
  5291.472,     0.8856377     
  5301.4746,    0.8822276     
  5311.4775,    0.8748263     
  5321.48,      0.86596817    
  5331.483,     0.8566823     
  5341.4854,    0.8465822     
  5351.488,     0.8359574     
  5361.4907,    0.8284482     
  5371.493,     0.8230919     
  5381.496,     0.81854886    
  5391.4985,    0.8162354     
  5401.5015,    0.8157996     
  5411.504,     0.8137717     
  5421.507,     0.8114099     
  5431.5093,    0.8070575     
  5441.512,     0.8011766     
  5451.5146,    0.79491234    
  5461.5176,    0.78947836    
  5471.52,      0.7804195     
  5481.5225,    0.7565086     
  5491.5254,    0.69586563    
  5501.528,     0.5817973     
  5511.531,     0.4257558     
  5521.533,     0.2719944     
  5531.536,     0.16065726    
  5541.5386,    0.0887943     
  5551.5415,    0.048831772   
  5561.544,     0.0275914     
  5571.547,     0.015998129   
  5581.5493,    0.009588586   
  5591.5522,    0.005886932   
  5601.5547,    0.003695601   
  5611.5576,    0.002384031   
  5621.56,      0.0015930532  
  5631.563,     0.0010653985  
  5641.5654,    7.2842586E-4  
  5651.568,     5.326992E-4   
  5661.571,     3.5008832E-4  
  5671.5737,    2.4818943E-4  
  5681.576,     1.886643E-4   
  5691.5786,    1.21068006E-4 
  5701.5815,    9.98811E-5    
  5711.584,     8.4747604E-5  
  5721.587,     5.54895E-5    
  5731.5894,    5.1453902E-5  
  5741.5923,    3.83382E-5    
  5751.5947,    2.62314E-5    
  5761.5977,    2.2565562E-5  
  5771.6,       1.7745542E-5  
  5781.603,     1.3838376E-5  
  5791.6055,    1.1180731E-5  
  5801.6084,    8.983942E-6   
  5811.611,     7.228567E-6   
  5821.614,     5.9438744E-6  
  5831.616,     4.821291E-6   
  5841.619,     3.940542E-6   
  5851.6216,    3.275757E-6   
  5861.6245,    2.7271578E-6  
  5871.627,     2.3179985E-6  
  5881.63,      1.9627848E-6  
  5891.6323,    1.642116E-6   
  5901.635,     1.3722857E-6  
  5911.6377,    1.1710807E-6  
  5921.6406,    9.970112E-7   
  5931.643,     8.8384485E-7  
  5941.6455,    7.180079E-7   
  5951.6484,    6.356353E-7   
  5961.651,     5.5772904E-7  
  5971.654,     4.9379906E-7  
  5981.6567,    4.1400213E-7  
  5991.659,     3.6636894E-7  
  6001.6616,    3.2041558E-7  
  6011.6646,    2.7686235E-7  
  6021.667,     2.4711798E-7  
  6031.67,      2.4280794E-7  
  6041.6724,    1.897963E-7   
  6051.6753,    1.7214055E-7  
  6061.6777,    1.7772884E-7  
  6071.6807,    1.2496841E-7  
  6081.683,     1.2077341E-7  
  6091.686,     1.2253999E-7  
  6101.6885,    9.4628774E-8  
  6111.6914,    5.5025005E-8  
  6121.694,     9.497755E-8   
  6131.697,     6.992525E-8   
  6141.699,     5.1065374E-8  
  6151.702,     3.3100292E-8  
  6161.7046,    8.542185E-8   
  6171.7075,    5.414817E-8   
  6181.71,      5.9716086E-8  
  6191.713,     2.1745327E-8  
  6201.7153,    7.867847E-8   
  6211.7183,    2.9607886E-8  
  6221.7207,    5.6869176E-8  
  6231.7236,    3.4634027E-8  
  6241.726,     2.9283322E-8  
  6251.729,     4.3211593E-8  
  6261.7314,    4.859226E-8   
  6271.7344,    4.5060602E-8  
  6281.737,     2.4556021E-8  
  6291.7397,    5.67136E-8    
  6301.742,     6.02048E-8    
  6311.745,     3.289367E-8   
  6321.7476,    4.051127E-8   
  6331.7505,    6.4929075E-8  
  6341.753,     2.7572431E-8  
  6351.756,     5.8983223E-9  
  6361.7583,    2.5486731E-8  
  6371.761,     2.5776488E-8  
  6381.7637,    4.798298E-9   
  6391.7666,    4.875903E-8   
  6401.769,     5.185353E-9   
  6411.772,     1.8712473E-8  
  6421.7744,    6.080146E-9   
  6431.7773,    2.7224058E-8  
  6441.78,      2.5236425E-8  
  6451.7827,    1.1374541E-8  
  6461.785,     1.0091321E-10 
  6471.788,     1.5342243E-8  
  6481.7905,    9.937746E-9   
  6491.7935,    2.5113136E-8  
  6501.796,     2.5601544E-8  
  6511.799,     1.7921797E-8  
  6521.8013,    2.6544665E-8  
  6531.804,     3.570457E-8   
  6541.8066,    3.280691E-8   
  6551.8096,    2.1841073E-8  
  6561.812,     1.0394798E-8  
  6571.815,     3.3660539E-9  
  6581.8174,    1.0091321E-10 
  6591.8203,    1.0091321E-10 
  6601.8228,    2.622E-8      
  6611.8257,    1.7524192E-8  
  6621.828,     1.0091321E-10 
  6631.831,     4.991644E-9   
  6641.8335,    5.9227073E-8  
  6651.8364,    9.6587245E-9  
  6661.839,     1.0091321E-10 
  6671.842,     1.8935037E-8  
  6681.844,     1.0091321E-10 
  6691.847,     3.5990187E-8  
  6701.8496,    1.0091321E-10 
  6711.8525,    4.039989E-8   
  6721.855,     1.0091321E-10 
  6731.858,     2.5473314E-8  
  6741.8604,    1.0091321E-10 
  6751.8633,    2.2775012E-8  
  6761.8657,    1.0091321E-10 
  6771.8687,    1.0091321E-10 
  6781.871,     9.94268E-9    
  6791.874,     1.0091321E-10 
  6801.8765,    3.28174E-9    
  6811.8794,    1.9715118E-8  
  6821.8823,    2.3658705E-8  
  6831.885,     1.0091321E-10 
  6841.8877,    2.3533199E-8  
  6851.89,      4.7030078E-9  
  6861.8926,    5.6176463E-9  
  6871.8955,    5.6120366E-9  
  6881.8984,    3.1089757E-9  
  6891.901,     1.0091321E-10 
  6901.904,     2.1895856E-8  
  6911.9062,    3.2475484E-8  
  6921.909,     2.7263404E-8  
  6931.9116,    2.042397E-8   
  6941.9146,    1.0091321E-10 
  6951.917,     1.0091321E-10 
  6961.92,      1.9946055E-8  
  6971.9224,    2.0224208E-8  
  6981.9253,    3.002083E-8   
  6991.9277,    2.6855306E-8  
  7001.9307,    1.1102238E-8  
  7011.933,     1.4370268E-8  
  7021.936,     2.7420894E-8  
  7031.9385,    2.731274E-8   
  7041.9414,    4.787856E-8   
  7051.944,     6.4601686E-8  
  7061.947,     3.2107437E-8  
  7071.949,     4.034934E-8   
  7081.952,     2.9523644E-8  
  7091.9546,    3.7256356E-8  
  7101.9575,    5.0648296E-8  
  7111.96,      5.7236516E-8  
  7121.963,     2.1535172E-8  
  7131.9653,    3.5105586E-8  
  7141.9683,    2.8236187E-8  
  7151.9707,    3.2040745E-8  
  7161.9736,    4.5610253E-8  
  7171.976,     3.746873E-8   
  7181.979,     4.1171194E-8  
  7191.982,     5.0986884E-8  
  7201.9844,    4.1657785E-8  
  7211.9873,    4.9837443E-8  
  7221.9897,    6.098216E-8   
  7231.9927,    3.4658644E-8  
  7241.995,     1.079291E-7   
  7251.998,     1.15342495E-7 
  7262.0005,    1.5057127E-7  
  7272.0034,    2.2488584E-7  
  7282.006,     3.953637E-7   
  7292.009,     7.7035577E-7  
  7302.011,     1.281858E-6   
  7312.014,     1.6794958E-6  
  7322.0166,    2.0093353E-6  
  7332.0195,    2.0521934E-6  
  7342.022,     1.7741507E-6  
  7352.025,     1.2909986E-6  
  7362.0273,    8.811572E-7   
  7372.0303,    4.6813363E-7  
  7382.0327,    2.9217745E-7  
  7392.0356,    1.7972445E-7  
  7402.038,     1.4572552E-7  
  7412.041,     1.215997E-7   
  7422.0435,    8.67529E-8    
  7432.0464,    8.778177E-8   
  7442.0493,    9.34758E-8    
  7452.052,     5.792902E-8   
  7462.0547,    5.5857146E-8  
  7472.057,     5.5532585E-8  
  7482.06,      5.329474E-8   
  7492.0625,    6.5198755E-8  
  7502.0654,    3.1714773E-8  
  7512.068,     7.8525005E-8  
  7522.071,     8.218631E-8   
  7532.073,     4.7681525E-8  
  7542.076,     7.9365726E-8  
  7552.0786,    9.849881E-8   
  7562.0815,    1.115904E-7   
  7572.084,     1.3630945E-7  
  7582.087,     1.897055E-7   
  7592.09,      2.0260731E-7  
  7602.0923,    2.9132391E-7  
  7612.095,     3.4936593E-7  
  7622.0977,    4.7857475E-7  
  7632.1006,    4.8908447E-7  
  7642.103,     5.151827E-7   
  7652.106,     5.230642E-7   
  7662.1084,    4.540262E-7   
  7672.1113,    3.8054904E-7  
  7682.114,     2.9499026E-7  
  7692.1167,    2.2116704E-7  
  7702.119,     1.7414624E-7  
  7712.122,     1.03603945E-7 
  7722.1245,    1.2228172E-7  
  7732.1274,    9.3370566E-8  
  7742.13,      7.5798965E-8  
  7752.133,     9.0368694E-8  
  7762.1353,    1.2253999E-7  
  7772.138,     8.056057E-8   
  7782.1406,    8.751068E-8   
  7792.1436,    9.8469556E-8  
  7802.146,     5.18388E-8    
  7812.149,     6.2510836E-8  
  7822.1514,    6.560352E-8   
  7832.1543,    6.356787E-8   
  7842.157,     9.828865E-8   
  7852.1597,    1.2558485E-7  
  7862.1626,    6.906395E-8   
  7872.165,     9.203731E-8   
  7882.168,     9.6514405E-8  
  7892.1704,    5.5188043E-8  
  7902.1733,    8.2560206E-8  
  7912.176,     8.2836344E-8  
  7922.1787,    6.295859E-8   
  7932.181,     1.1918742E-7  
  7942.184,     1.4231443E-7  
  7952.1865,    7.777913E-8   
  7962.1895,    1.1848018E-7  
  7972.192,     1.17802195E-7 
  7982.195,     1.4235076E-7  
  7992.1978,    1.1548677E-7  
  8002.2,       9.75455E-8    
  8012.203,     9.646194E-8   
  8022.2056,    8.4330225E-8  
  8032.2085,    5.5809323E-8  
  8042.211,     5.168121E-8   
  8052.214,     8.800292E-8   
  8062.2163,    5.8587634E-8  
  8072.219,     4.2764146E-8  
  8082.2217,    4.9955183E-8  
  8092.2246,    9.6648286E-8  
  8102.2275,    8.105503E-8   
  8112.23,      5.8412994E-8  
  8122.233,     5.295222E-8   
  8132.2354,    5.729725E-8   
  8142.2383,    9.388259E-8   
  8152.2407,    7.8820314E-8  
  8162.2437,    3.138557E-8   
  8172.246,     9.481945E-8   
  8182.249,     8.836421E-8   
  8192.252,     7.019462E-8   
  8202.254,     6.4356115E-8  
  8212.257,     8.5741064E-8  
  8222.26,      4.097345E-8   
  8232.263,     1.28662E-7    
  8242.265,     9.1490584E-8  
  8252.268,     9.170609E-8   
  8262.2705,    5.3773363E-8  
  8272.273,     7.115338E-8   
  8282.276,     5.2334975E-8  
  8292.278,     9.0073485E-8  
  8302.281,     7.931972E-8   
  8312.284,     4.8383416E-8  
  8322.287,     3.531806E-8   
  8332.289,     9.0292616E-8  
  8342.292,     8.329156E-8   
  8352.295,     4.831259E-8   
  8362.298,     8.3074546E-8  
  8372.3,       5.0994956E-8  
  8382.303,     5.0653743E-8  
  8392.306,     7.792472E-8   
  8402.309,     5.9535296E-8  
  8412.311,     1.3011784E-7  
  8422.313,     1.0254157E-7  
  8432.316,     9.372621E-8   
  8442.319,     3.8585988E-8  
  8452.322,     9.31469E-8    
  8462.324,     9.563243E-8   
  8472.327,     7.9147E-8     
  8482.33,      5.991554E-8   
  8492.333,     1.0050955E-7  
  8502.335,     5.7927004E-8  
  8512.338,     3.8832564E-8  
  8522.341,     8.08925E-9    
  8532.344,     1.6731095E-8  
  8542.347,     1.0886435E-8  
  8552.349,     8.0024336E-8  
  8562.352,     7.342845E-8   
  8572.3545,    6.553754E-8   
  8582.357,     6.313848E-8   
  8592.359,     8.152185E-8   
  8602.362,     1.2104279E-7  
  8612.365,     4.4108706E-8  
  8622.368,     4.4801723E-8  
  8632.37,      1.0091321E-10 
  8642.373,     6.36966E-8    
  8652.376,     1.4074559E-8  
  8662.379,     1.0091321E-10 
  8672.382,     1.2575232E-7  
  8682.384,     6.08512E-8    
  8692.387,     1.3831817E-7  
  8702.39,      1.17288664E-7 
  8712.393,     5.86862E-8    
  8722.395,     1.2346011E-7  
  8732.397,     6.515779E-8   
  8742.4,       1.1729573E-7  
  8752.403,     1.0091321E-10 
  8762.405,     6.945096E-8   
  8772.408,     2.8866749E-8  
  8782.411,     1.9642478E-7  
  8792.414,     9.884769E-9   
  8802.416,     2.4346173E-7  
  8812.419,     2.6455072E-7  
  8822.422,     1.0091321E-10 
  8832.425,     2.966156E-7   
  8842.428,     7.546108E-9   
  8852.43,      1.0091321E-10 
  8862.433,     1.0091321E-10 
  8872.436,     1.0091321E-10 
  8882.438,     6.559E-8      
  8892.44,      6.923072E-9   
  8902.443,     1.0091321E-10 
  8912.446,     3.0616082E-8  
  8922.449,     1.0091321E-10 
  8932.452,     1.0091321E-10 
  8942.454,     4.582878E-8   
  8952.457,     1.0091321E-10 
  8962.46,      1.0091321E-10 
  8972.463,     1.0091321E-10 
  8982.465,     1.0091321E-10 
  8992.468,     1.0091321E-10 
  9002.471,     4.9686914E-6  
  9012.474,     3.8248004E-6  
  9022.477,     3.0833498E-6  
  9032.479,     4.393669E-6   
  9042.481,     4.9871946E-6  
  9052.484,     2.0122613E-6  
  9062.487,     3.9805545E-6  
  9072.489,     2.8604231E-6  
  9082.492,     4.410467E-6   
  9092.495,     2.7304266E-6  
  9102.498,     2.1945393E-6  
  9112.5,       3.96416E-6    
  9122.503,     2.7518254E-6  
  9132.506,     3.3453512E-6  
  9142.509,     2.073673E-6   
  9152.511,     1.6936707E-6  
  9162.514,     3.6870656E-6  
  9172.517,     2.7545693E-6  
  9182.52,      3.8028268E-6  
  9192.522,     3.5417838E-6  
  9202.524,     3.7257064E-6  
  9212.527,     2.994819E-6   
  9222.53,      2.5560585E-6  
  9232.533,     2.4134906E-6  
  9242.535,     2.4581545E-6  
  9252.538,     2.1357305E-6  
  9262.541,     2.783091E-6   
  9272.544,     2.9906219E-6  
  9282.547,     1.4369562E-6  
  9292.549,     1.8665559E-6  
  9302.552,     2.1061192E-6  
  9312.555,     3.1534382E-6  
  9322.558,     2.0414689E-6  
  9332.56,      9.498501E-7   
  9342.5625,    2.0219265E-6  
  9352.565,     1.7977893E-6  
  9362.568,     2.5132508E-6  
  9372.57,      9.423762E-7   
  9382.573,     1.5811481E-6  
  9392.576,     1.4216613E-6  
  9402.579,     2.3904977E-6  
  9412.582,     1.1323087E-6  
  9422.584,     2.0154798E-6  
  9432.587,     2.0683863E-6  
  9442.59,      1.1438102E-6  
  9452.593,     2.6073608E-6  
  9462.595,     1.7373965E-6  
  9472.598,     8.7123055E-7  
  9482.601,     1.0554305E-6  
  9492.604,     2.2523493E-6  
  9502.606,     1.625005E-6   
  9512.608,     1.445895E-6   
  9522.611,     2.1649482E-6  
  9532.614,     1.148441E-6   
  9542.617,     1.0922654E-6  
  9552.619,     1.0126531E-6  
  9562.622,     1.2145442E-6  
  9572.625,     1.4052868E-6  
  9582.628,     1.1979074E-6  
  9592.631,     1.7476166E-6  
  9602.633,     1.4242743E-6  
  9612.636,     6.6893205E-7  
  9622.639,     2.0739453E-6  
  9632.642,     2.2488787E-6  
  9642.644,     8.943102E-7   
  9652.646,     1.0349196E-6  
  9662.649,     1.1847513E-6  
  9672.652,     1.2135856E-6  
  9682.655,     1.0408821E-6  
  9692.657,     1.149914E-6   
  9702.66,      1.4584155E-6  
  9712.663,     1.8887517E-6  
  9722.666,     1.0974007E-6  
  9732.668,     1.5215121E-6  
  9742.671,     8.397832E-7   
  9752.674,     1.9836084E-6  
  9762.677,     1.4390142E-6  
  9772.68,      1.211124E-6   
  9782.682,     1.3778346E-6  
  9792.685,     7.857485E-7   
  9802.6875,    1.506772E-6   
  9812.69,      3.4285046E-7  
  9822.692,     1.3891344E-6  
  9832.695,     1.6780328E-6  
  9842.698,     1.3005932E-6  
  9852.701,     9.134995E-7   
  9862.703,     9.1919975E-7  
  9872.706,     1.3278739E-6  
  9882.709,     6.0787033E-7  
  9892.712,     5.255724E-7   
  9902.715,     1.0101207E-6  
  9912.717,     1.0361706E-6  
  9922.72,      7.82851E-7    
  9932.723,     4.83594E-7    
  9942.726,     1.2182569E-6  
  9952.728,     1.0779593E-6  
  9962.73,      1.0458964E-6  
  9972.733,     1.1745816E-6  
  9982.736,     2.001335E-8   
  9992.739,     1.1894326E-6  
  10002.741,    6.9953296E-7  
  10012.744,    1.0534027E-6  
  10022.747,    1.1261645E-6  
  10032.75,     4.7243563E-7  
  10042.752,    1.2665226E-6  
  10052.755,    1.0433035E-6  
  10062.758,    9.228903E-7   
  10072.76,     8.4938387E-7  
  10082.763,    6.5823565E-7  
  10092.766,    8.70372E-7    
  10102.769,    1.0430009E-6  
  10112.771,    9.685925E-7   
  10122.774,    8.100065E-7   
  10132.777,    5.121913E-7   
  10142.779,    7.059778E-7   
  10152.782,    7.747263E-7   
  10162.785,    1.2058675E-6  
  10172.788,    9.4347183E-7  
  10182.79,     8.539804E-7   
  10192.793,    3.763782E-7   
  10202.796,    8.9007585E-7  
  10212.798,    1.4912955E-6  
  10222.801,    9.708524E-7   
  10232.804,    1.1750154E-6  
  10242.807,    1.1304725E-6  
  10252.809,    9.671911E-7   
  10262.812,    1.2311002E-6  
  10272.815,    7.575346E-7   
  10282.817,    1.0221671E-6  
  10292.82,     1.1325811E-6  
  10302.823,    1.183359E-6   
  10312.826,    1.1286666E-6  
  10322.828,    8.0724715E-7  
  10332.831,    9.597404E-7   
  10342.834,    1.6217766E-6  
  10352.836,    1.2649388E-6  
  10362.839,    1.138342E-6   
  10372.842,    1.0262531E-6  
  10382.844,    1.2964971E-6  
  10392.847,    1.0304905E-6  
  10402.85,     1.2516616E-6  
  10412.853,    1.3142235E-6  
  10422.855,    1.1410558E-6  
  10432.858,    1.4091307E-6  
  10442.861,    1.3785308E-6  
  10452.863,    1.4658914E-6  
  10462.866,    1.5804621E-6  
  10472.869,    1.39885E-6    
  10482.872,    1.0861718E-6  
  10492.874,    1.2523072E-6  
  10502.877,    1.6103659E-6  
  10512.88,     1.4820439E-6  
  10522.882,    1.087806E-6   
  10532.885,    1.6257011E-6  
  10542.888,    1.7150998E-6  
  10552.891,    1.6724133E-6  
  10562.893,    1.2294657E-6  
  10572.896,    1.6646751E-6  
  10582.899,    1.6625058E-6  
  10592.901,    1.9328104E-6  
  10602.904,    1.6790013E-6  
  10612.907,    1.6745722E-6  
  10622.91,     1.5289678E-6  
  10632.912,    1.723625E-6   
  10642.915,    1.7582303E-6  
  10652.918,    1.7138791E-6  
  10662.92,     1.7445092E-6  
  10672.923,    1.9715924E-6  
  10682.926,    1.8389424E-6  
  10692.929,    2.2505633E-6  
  10702.931,    1.7631335E-6  
  10712.934,    1.9653576E-6  
  10722.937,    2.3370262E-6  
  10732.939,    1.9913466E-6  
  10742.942,    2.3226191E-6  
  10752.945,    2.373407E-6   
  10762.948,    2.094073E-6   
  10772.95,     2.2885486E-6  
  10782.953,    2.516792E-6   
  10792.956,    2.2571517E-6  
  10802.958,    2.782395E-6   
  10812.961,    2.649523E-6   
  10822.964,    2.515884E-6   
  10832.967,    2.302683E-6   
  10842.969,    2.7675742E-6  
  10852.972,    2.817081E-6   
  10862.975,    2.9576813E-6  
  10872.977,    3.1910802E-6  
  10882.98,     2.9547657E-6  
  10892.983,    3.0252472E-6  
  10902.986,    3.131676E-6   
  10912.988,    3.5848236E-6  
  10922.991,    3.2067182E-6  
  10932.994,    3.6213457E-6  
  10942.996,    3.534429E-6   
  10952.999,    3.755136E-6   
  10963.002,    3.8886637E-6  
  10973.005,    4.147104E-6   
  10983.007,    3.892397E-6   
  10993.01,     4.675132E-6   
  11003.013,    3.9733914E-6  
  11004.013,    0.0           
  11005.013,    0.0           
