# WAVELENGTH   THROUGHPUT     
  1998.6482,   0.0            
  1999.6482,   0.0            
  2000.6482,   6.9354127E-7   
  2020.6517,   7.2386194E-7   
  2040.6553,   1.2137167E-6   
  2060.659,    1.8834635E-6   
  2080.6628,   5.204132E-6    
  2100.6667,   1.4559585E-5   
  2110.6687,   2.69757E-5     
  2120.6707,   2.317912E-5    
  2130.6726,   5.8247533E-5   
  2140.6746,   9.6612974E-5   
  2150.6765,   1.1489651E-4   
  2160.6787,   1.358776E-4    
  2170.6807,   1.728443E-4    
  2180.6829,   3.117192E-4    
  2190.6848,   5.6748884E-4   
  2200.687,    7.313412E-4    
  2210.689,    7.892891E-4    
  2220.6912,   9.841135E-4    
  2230.693,    0.0015785781   
  2240.6953,   0.002537714    
  2250.6975,   0.0032410806   
  2260.6997,   0.0031901265   
  2270.702,    0.0031581554   
  2280.704,    0.0039114766   
  2290.7063,   0.0058747083   
  2300.7085,   0.00896892     
  2310.7104,   0.01145668     
  2320.713,    0.011831343    
  2330.715,    0.011690469    
  2340.7173,   0.012870407    
  2350.7195,   0.015743818    
  2360.7217,   0.019818148    
  2370.7239,   0.02358975     
  2380.726,    0.026045538    
  2390.7285,   0.028229572    
  2400.7307,   0.03210308     
  2410.733,    0.039571356    
  2420.735,    0.051838305    
  2430.7375,   0.06848032     
  2440.7397,   0.086906716    
  2450.7422,   0.10436499     
  2460.7444,   0.12166041     
  2470.7466,   0.14317203     
  2480.749,    0.17324694     
  2490.7512,   0.2126115      
  2500.7537,   0.25656587     
  2510.756,    0.29681665     
  2520.7583,   0.3282683      
  2530.7605,   0.35296607     
  2540.763,    0.37615618     
  2550.7654,   0.40025246     
  2560.7676,   0.42344257     
  2570.77,     0.44155127     
  2580.7725,   0.45285508     
  2590.775,    0.4586239      
  2600.777,    0.4608549      
  2610.7795,   0.4608419      
  2620.782,    0.45823923     
  2630.7842,   0.45267424     
  2640.7866,   0.44439068     
  2650.789,    0.43520498     
  2660.7915,   0.42691842     
  2670.7937,   0.4206321      
  2680.7961,   0.41677457     
  2690.7986,   0.41404006     
  2700.801,    0.41058615     
  2710.8035,   0.40502715     
  2720.806,    0.39767677     
  2730.8083,   0.38946617     
  2740.8108,   0.38148734     
  2750.813,    0.37484035     
  2760.8157,   0.36943623     
  2770.818,    0.3640431      
  2780.8203,   0.35740605     
  2790.823,    0.34898064     
  2800.8252,   0.33843416     
  2810.828,    0.32668373     
  2820.83,     0.31520706     
  2830.8325,   0.30523905     
  2840.8352,   0.29770383     
  2850.8376,   0.29269633     
  2860.84,     0.2892115      
  2870.8425,   0.28616324     
  2880.845,    0.2823197      
  2890.8474,   0.2767457      
  2900.8499,   0.26951224     
  2910.8523,   0.26105982     
  2920.8547,   0.25261846     
  2930.8574,   0.24482946     
  2940.8599,   0.2377968      
  2950.8623,   0.23109983     
  2960.8647,   0.22426899     
  2970.8672,   0.21638009     
  2980.8696,   0.20717537     
  2990.8723,   0.19727731     
  3000.8748,   0.18702054     
  3010.8772,   0.17667386     
  3020.8796,   0.1653031      
  3030.882,    0.15018772     
  3040.8848,   0.12830643     
  3050.8872,   0.09999892     
  3060.8896,   0.070407584    
  3070.892,    0.04579475     
  3080.8948,   0.028526304    
  3090.8972,   0.017555187    
  3100.8997,   0.010929155    
  3110.902,    0.006932755    
  3120.9048,   0.004520928    
  3130.9072,   0.0030142847   
  3140.91,     0.0020801262   
  3150.9124,   0.0014476959   
  3160.9148,   0.0010610443   
  3170.9172,   7.683079E-4    
  3180.92,     5.3551764E-4   
  3190.9224,   4.2561663E-4   
  3200.9248,   3.237084E-4    
  3210.9275,   2.657606E-4    
  3220.93,     1.9182722E-4   
  3230.9326,   1.708461E-4    
  3240.935,    1.368767E-4    
  3250.9375,   9.821153E-5    
  3260.9402,   1.01908205E-4  
  3270.9426,   6.6939705E-5   
  3280.9453,   6.584069E-5    
  3290.9478,   6.264357E-5    
  3300.9502,   4.6458154E-5   
  3310.953,    3.3469852E-5   
  3320.9553,   3.2818836E-5   
  3340.9604,   2.2385437E-5   
  3360.9656,   1.4949134E-5   
  3380.9707,   9.421972E-6    
  3400.9758,   5.7932316E-6   
  3420.981,    3.5703438E-6   
  3440.986,    2.687869E-6    
  3460.9912,   2.0710745E-6   
  3480.9963,   1.0580768E-6   
  3501.0015,   6.7884355E-7   
  3521.0066,   1.3400429E-6   
  3541.0117,   7.345733E-7    
  3561.0168,   4.024105E-7    
  3581.022,    3.865548E-7    
  3601.027,    3.1370243E-7   
  3621.0322,   7.473089E-7    
  3641.0376,   6.9102055E-7   
  3661.0425,   3.932498E-7    
  3681.0479,   2.571124E-7    
  3701.053,    3.2057724E-8   
  3721.058,    1.362053E-7    
  3741.0632,   7.9941394E-8   
  3761.0686,   1.0429106E-6   
  3781.0737,   9.443284E-7    
  3801.0789,   1.2183026E-6   
  3821.084,    1.8226483E-6   
  3841.0894,   2.5335278E-6   
  3861.0945,   6.257623E-6    
  3881.0996,   2.2011072E-5   
  3901.105,    8.2090155E-5   
  3921.11,     1.3658496E-4   
  3941.1155,   7.551438E-5    
  3961.1206,   2.4757299E-5   
  3981.1257,   1.3903876E-5   
  4001.131,    1.0574375E-5   
  4021.1362,   9.487304E-6    
  4041.1416,   9.576214E-6    
  4061.1467,   1.1166042E-5   
  4081.1519,   1.4603545E-5   
  4101.157,    2.1817248E-5   
  4121.1626,   3.594902E-5    
  4141.1675,   5.6712517E-5   
  4161.173,    6.667514E-5    
  4181.178,    5.2648877E-5   
  4201.1836,   3.251381E-5    
  4221.1885,   2.0412912E-5   
  4241.194,    1.4326794E-5   
  4261.199,    1.1000191E-5   
  4281.2046,   9.267362E-6    
  4301.2095,   8.4632065E-6   
  4321.215,    8.2988145E-6   
  4341.22,     8.941037E-6    
  4361.2256,   9.961507E-6    
  4381.2305,   1.1371058E-5   
  4401.236,    1.3807263E-5   
  4421.241,    1.8182222E-5   
  4441.2466,   2.3625918E-5   
  4461.252,    2.7545488E-5   
  4481.2573,   2.7794864E-5   
  4501.262,    2.4145951E-5   
  4521.2676,   1.8988596E-5   
  4541.273,    1.4704155E-5   
  4561.2783,   1.1633121E-5   
  4581.2837,   9.630944E-6    
  4601.2886,   7.873217E-6    
  4621.294,    6.8825007E-6   
  4641.2993,   6.4612695E-6   
  4661.3047,   6.088326E-6    
  4681.31,     6.207049E-6    
  4701.3154,   6.5290587E-6   
  4721.3203,   7.0058195E-6   
  4741.3257,   7.732614E-6    
  4761.331,    8.724851E-6    
  4781.3364,   9.682488E-6    
  4801.342,    1.1074325E-5   
  4821.347,    1.2189819E-5   
  4841.3525,   1.2660096E-5   
  4861.3574,   1.2574473E-5   
  4881.363,    1.17530135E-5  
  4901.368,    1.0042953E-5   
  4921.3735,   8.638678E-6    
  4941.379,    7.4771647E-6   
  4961.3843,   6.4186283E-6   
  4981.3896,   5.610046E-6    
  5001.395,    5.0812328E-6   
  5021.4,      4.5246443E-6   
  5041.4053,   4.143118E-6    
  5061.4106,   4.031968E-6    
  5081.416,    3.76345E-6     
  5101.4214,   4.0145637E-6   
  5121.427,    4.0347854E-6   
  5141.432,    3.839551E-6    
  5161.4375,   4.098248E-6    
  5181.443,    4.7519293E-6   
  5201.448,    4.9126047E-6   
  5221.4536,   5.0456447E-6   
  5241.4585,   5.726771E-6    
  5261.464,    6.1519786E-6   
  5281.469,    6.3853086E-6   
  5301.4746,   6.6435955E-6   
  5321.48,     6.4106057E-6   
  5341.4854,   6.2609E-6      
  5361.4907,   5.8077685E-6   
  5381.496,    5.607809E-6    
  5401.5015,   4.9372125E-6   
  5421.507,    4.4942917E-6   
  5441.512,    3.9984484E-6   
  5461.5176,   3.565908E-6    
  5481.5225,   3.4981888E-6   
  5501.528,    3.194802E-6    
  5521.533,    2.9760392E-6   
  5541.5386,   2.6817145E-6   
  5561.544,    2.4429394E-6   
  5581.5493,   2.3593548E-6   
  5601.5547,   2.4009971E-6   
  5621.56,     2.3830933E-6   
  5641.5654,   2.5703146E-6   
  5661.571,    2.2642205E-6   
  5681.576,    2.4041842E-6   
  5701.5815,   2.5829534E-6   
  5721.587,    2.5059326E-6   
  5741.5923,   2.9138153E-6   
  5761.5977,   3.0610727E-6   
  5781.603,    3.491525E-6    
  5801.6084,   3.5879182E-6   
  5821.614,    3.642289E-6    
  5841.619,    3.4709533E-6   
  5861.6245,   4.0214277E-6   
  5881.63,     3.972941E-6    
  5901.635,    3.7617615E-6   
  5921.6406,   3.928871E-6    
  5941.6455,   3.5743901E-6   
  5961.651,    3.7907053E-6   
  5981.6567,   3.6115666E-6   
  6001.6616,   3.3939828E-6   
  6021.667,    3.0998476E-6   
  6041.6724,   2.8848713E-6   
  6061.6777,   2.687489E-6    
  6081.683,    2.7922747E-6   
  6101.6885,   2.3126368E-6   
  6121.694,    2.3819446E-6   
  6141.699,    2.5305005E-6   
  6161.7046,   2.1561978E-6   
  6181.71,     1.5925655E-6   
  6201.7153,   1.9534205E-6   
  6221.7207,   2.1021165E-6   
  6241.726,    1.6783482E-6   
  6261.7314,   2.07615E-6     
  6281.737,    1.890477E-6    
  6301.742,    1.8577066E-6   
  6321.7476,   1.9740019E-6   
  6341.753,    1.6055736E-6   
  6361.7583,   2.2135162E-6   
  6381.7637,   2.0551288E-6   
  6401.769,    2.101647E-6    
  6421.7744,   1.2765001E-6   
  6441.78,     1.4557886E-6   
  6461.785,    1.921739E-6    
  6481.7905,   2.2816548E-6   
  6501.796,    2.7271535E-6   
  6521.8013,   2.2670479E-6   
  6541.8066,   2.057197E-6    
  6561.812,    2.4888582E-6   
  6581.8174,   2.4427795E-6   
  6601.8228,   2.296831E-6    
  6621.828,    3.1491334E-6   
  6641.8335,   2.5871198E-6   
  6661.839,    2.626654E-6    
  6681.844,    2.5418603E-6   
  6701.8496,   3.0560773E-6   
  6721.855,    2.2806958E-6   
  6741.8604,   3.142759E-6    
  6761.8657,   2.610918E-6    
  6781.871,    3.3345862E-6   
  6801.8765,   2.2283427E-6   
  6821.8823,   2.6045739E-6   
  6841.8877,   2.8215584E-6   
  6861.8926,   2.3629416E-6   
  6881.8984,   2.303295E-6    
  6901.904,    2.43139E-6     
  6921.909,    2.6282125E-6   
  6941.9146,   2.4396725E-6   
  6961.92,     2.182284E-6    
  6981.9253,   2.0689165E-6   
  7001.9307,   2.556847E-6    
  7021.936,    2.3530904E-6   
  7041.9414,   2.1931544E-6   
  7061.947,    2.0830237E-6   
  7081.952,    2.106962E-6    
  7101.9575,   1.3096503E-6   
  7121.963,    1.0482958E-6   
  7141.9683,   2.3132163E-6   
  7161.9736,   1.171265E-6    
  7181.979,    1.7731328E-6   
  7201.9844,   1.715155E-6    
  7221.9897,   2.2117179E-6   
  7241.995,    2.0609734E-6   
  7262.0005,   2.1555581E-6   
  7282.006,    1.567458E-6    
  7302.011,    2.4098692E-6   
  7322.0166,   2.283503E-6    
  7342.022,    1.0219595E-6   
  7362.0273,   1.2467669E-6   
  7382.0327,   2.7251454E-6   
  7402.038,    3.1625311E-6   
  7422.0435,   3.0210886E-6   
  7442.0493,   2.2641805E-6   
  7462.0547,   2.0311604E-6   
  7482.06,     3.3911851E-6   
  7502.0654,   3.1249651E-6   
  7522.071,    2.5457666E-6   
  7542.076,    3.4528898E-6   
  7562.0815,   3.6264232E-6   
  7582.087,    2.9510818E-6   
  7602.0923,   3.7633702E-6   
  7622.0977,   3.601136E-6    
  7642.103,    4.083941E-6    
  7662.1084,   4.0393916E-6   
  7682.114,    3.1757495E-6   
  7702.119,    3.8175613E-6   
  7722.1245,   4.5778966E-6   
  7742.13,     4.7597428E-6   
  7762.1353,   4.4830817E-6   
  7782.1406,   4.2978086E-6   
  7802.146,    4.399697E-6    
  7822.1514,   4.3301898E-6   
  7842.157,    4.391804E-6    
  7862.1626,   5.156805E-6    
  7882.168,    6.1849987E-6   
  7902.1733,   5.5656265E-6   
  7922.1787,   5.4348343E-6   
  7942.184,    5.0561157E-6   
  7962.1895,   4.566367E-6    
  7982.195,    4.8945512E-6   
  8002.2,      5.6808926E-6   
  8022.2056,   5.28446E-6     
  8042.211,    4.281653E-6    
  8062.2163,   4.4044027E-6   
  8082.2217,   5.1107163E-6   
  8102.2275,   5.713274E-6    
  8122.233,    6.3273105E-6   
  8142.2383,   4.970323E-6    
  8162.2437,   5.5908636E-6   
  8182.249,    5.4937013E-6   
  8202.254,    5.0652275E-6   
  8222.26,     5.411975E-6    
  8242.265,    5.8454643E-6   
  8262.2705,   6.0564444E-6   
  8282.276,    5.49514E-6     
  8302.281,    6.024643E-6    
  8322.287,    6.890293E-6    
  8342.292,    7.3424662E-6   
  8362.298,    6.362968E-6    
  8382.303,    6.203612E-6    
  8402.309,    6.2908734E-6   
  8422.313,    5.4973884E-6   
  8442.319,    5.854277E-6    
  8462.324,    7.116799E-6    
  8482.33,     7.0779843E-6   
  8502.335,    9.188762E-6    
  8522.341,    1.0112091E-5   
  8542.347,    5.738411E-6    
  8602.362,    1.014726E-5    
  8622.368,    8.389383E-6    
  8642.373,    8.242346E-7    
  8662.379,    1.911628E-6    
  8682.384,    9.160858E-7    
  8702.39,     9.381449E-6    
  8722.395,    9.66921E-6     
  8742.4,      6.35043E-6     
  8762.405,    1.1510132E-5   
  8782.411,    1.0960926E-5   
  8802.416,    7.0887745E-6   
  8822.422,    8.957941E-6    
  8842.428,    1.1274644E-5   
  8862.433,    4.5734205E-6   
  8882.438,    4.9484424E-6   
  8902.443,    6.869502E-6    
  8922.449,    1.4606543E-6   
  8942.454,    8.678912E-6    
  8962.46,     8.565944E-6    
  8982.465,    1.4361163E-6   
  9002.471,    9.852805E-6    
  9022.477,    1.0749916E-5   
  9042.481,    8.393749E-6    
  9062.487,    8.5545835E-6   
  9082.492,    4.090575E-6    
  9102.498,    9.23653E-6     
  9122.503,    8.980411E-6    
  9142.509,    4.6543278E-6   
  9162.514,    1.1504836E-5   
  9182.52,     9.728567E-6    
  9202.524,    4.3430177E-6   
  9222.53,     1.0564983E-5   
  9242.535,    9.572397E-6    
  9262.541,    4.64071E-6     
  9282.547,    9.052096E-6    
  9302.552,    8.795148E-6    
  9322.558,    1.7101396E-6   
  9342.5625,   4.8917937E-6   
  9362.568,    6.1873066E-6   
  9382.573,    1.061284E-5    
  9402.579,    7.405899E-6    
  9422.584,    2.48677E-6     
  9442.59,     9.3085255E-6   
  9462.595,    7.2532166E-6   
  9482.601,    3.0501724E-6   
  9502.606,    7.4409977E-6   
  9522.611,    6.7469523E-6   
  9542.617,    3.970943E-6    
  9562.622,    7.586456E-6    
  9582.628,    5.7707816E-6   
  9602.633,    2.868726E-6    
  9622.639,    6.782051E-6    
  9642.644,    5.41732E-6     
  9662.649,    2.2909364E-6   
  9682.655,    5.6175895E-6   
  9702.66,     3.502185E-6    
  9722.666,    3.7644293E-6   
  9742.671,    6.86084E-6     
  9762.677,    7.055045E-6    
  9782.682,    1.0295127E-5   
  9802.6875,   8.236291E-6    
  9822.692,    7.690593E-6    
  9842.698,    1.2412818E-5   
  9862.703,    9.531844E-6    
  9882.709,    7.6268198E-6   
  9902.715,    1.2257458E-5   
  9922.72,     1.3164442E-5   
  9942.726,    2.7947726E-6   
  9962.73,     8.135382E-6    
  9982.736,    9.0110025E-6   
  10002.741,   7.4344034E-6   
  10022.747,   6.6454436E-6   
  10042.752,   8.8451425E-6   
  10062.758,   7.906658E-6    
  10082.763,   9.249558E-6    
  10102.769,   9.331575E-6    
  10122.774,   9.840696E-6    
  10142.779,   6.6081875E-6   
  10162.785,   2.8241561E-6   
  10182.79,    8.558462E-6    
  10202.796,   8.099924E-6    
  10222.801,   7.743605E-6    
  10242.807,   1.1709852E-5   
  10262.812,   8.285886E-6    
  10282.817,   2.015874E-6    
  10302.823,   6.840598E-6    
  10322.828,   8.611273E-6    
  10342.834,   7.0315964E-6   
  10362.839,   6.7641467E-6   
  10382.844,   9.245232E-6    
  10402.85,    4.5235756E-6   
  10422.855,   1.0791979E-5   
  10442.861,   5.593172E-6    
  10462.866,   5.363239E-6    
  10482.872,   5.2159717E-6   
  10502.877,   5.935663E-6    
  10522.882,   1.0112491E-5   
  10542.888,   3.6850606E-6   
  10562.893,   2.0551188E-6   
  10582.899,   1.2582266E-5   
  10602.904,   7.707957E-6    
  10622.91,    3.8098283E-6   
  10642.915,   8.9316745E-6   
  10662.92,    7.303871E-6    
  10682.926,   4.0759583E-6   
  10702.931,   1.2073126E-5   
  10722.937,   3.4172417E-6   
  10742.942,   4.808868E-6    
  10762.948,   2.5141753E-5   
  10782.953,   5.176797E-6    
  10802.958,   1.4545798E-6   
  10822.964,   5.2005753E-6   
  10842.969,   8.493799E-6    
  10862.975,   2.1141755E-6   
  10882.98,    9.156952E-6    
  10902.986,   6.676656E-6    
  10922.991,   1.0862315E-5   
  10942.996,   8.671379E-6    
  10963.002,   3.0932038E-6   
  10983.007,   3.6450367E-6   
  11003.013,   1.4737225E-6   
  11004.013,   0.0            
  11005.013,   0.0            
